Sample File	P:\aerosols\private\Bret Hatzinger\Summer Work 2021\Sample Data Generation for Guillermo (6_2_21)\HTDMA 0.1gL AmmSulf 200nmPSL Sample Peaks\HTDMA 0.S80
Classifier Model	3080
DMA Model	3081
DMA Inner Radius(cm)	0.00937
DMA Outer Radius(cm)	0.01961
DMA Characteristic Length(cm)	0.44369
CPC Model	3776 Low Flow
Reference Gas Viscosity (Pa*s)	1.83245e-005
Reference Mean Free Path (m)	6.73e-008
Reference Gas Temperature (K)	296.15
Reference Gas Pressure (kPa)	101.3
Channels/Decade	64
Multiple Charge Correction	FALSE
Nanoparticle Aggregate Mobility Analysis	FALSE
Diffusion Correction	FALSE
Gas Density	0.0012
Units	dw/dlogDp
Weight	Number
Sample #	1	2	3	4	5	6	7	8	9	10	11	12	13	14	15	16	17	18	19	20	21	22	23	24	25	26	27	28	29	30	31	32	33	34	35	36	37	38	39	40	41	42	43	44	45	46	47	48	49	50	51	52	53	54	55	56	57	58	59	60	61	62	63	64	65	66	67	68	69	70	71
Date	07/15/21	07/15/21	07/15/21	07/15/21	07/15/21	07/15/21	07/15/21	07/15/21	07/15/21	07/15/21	07/15/21	07/15/21	07/15/21	07/15/21	07/15/21	07/15/21	07/15/21	07/15/21	07/15/21	07/15/21	07/15/21	07/15/21	07/15/21	07/15/21	07/15/21	07/15/21	07/15/21	07/15/21	07/15/21	07/15/21	07/15/21	07/15/21	07/15/21	07/15/21	07/15/21	07/15/21	07/15/21	07/15/21	07/15/21	07/15/21	07/15/21	07/15/21	07/15/21	07/15/21	07/15/21	07/15/21	07/15/21	07/15/21	07/15/21	07/15/21	07/15/21	07/15/21	07/15/21	07/15/21	07/15/21	07/15/21	07/15/21	07/15/21	07/15/21	07/15/21	07/15/21	07/15/21	07/15/21	07/15/21	07/15/21	07/15/21	07/15/21	07/15/21	07/15/21	07/15/21	07/15/21
Start Time	09:37:06	09:39:24	09:41:39	09:43:54	09:46:09	09:48:24	09:50:39	09:52:54	09:55:09	09:57:24	09:59:39	10:01:54	10:04:09	10:06:24	10:08:39	10:10:54	10:13:09	10:15:24	10:17:39	10:19:54	10:22:09	10:24:24	10:26:39	10:28:54	10:31:09	10:33:24	10:35:39	10:37:54	10:40:09	10:42:24	10:44:39	10:46:54	10:49:09	10:51:24	10:53:39	10:55:54	10:58:09	11:00:24	11:02:39	11:04:54	11:07:09	11:09:24	11:11:39	11:13:54	11:16:09	11:18:24	11:20:39	11:22:54	11:25:09	11:27:24	11:29:39	11:31:54	11:34:09	11:36:25	11:38:40	11:40:55	11:43:10	11:45:25	11:47:40	11:49:55	11:52:10	11:54:25	11:56:40	11:58:55	12:01:10	12:03:25	12:05:40	12:07:55	12:10:10	12:12:25	12:14:40
Diameter Midpoint
 14.6	762.813	19290	13808.7	2271.13	757.042	2271.13	312.045	312.045	2583.17	5302.18	6371.27	7131.19	3785.21	8639.51	5299.29	2274.01	4542.25	4097.25	3031.05	5166.34	3028.17	5611.34	4854.3	2583.17	1514.08	3028.17	3028.17	1069.09	2895.22	3785.21	1514.08	0	3785.21	2138.17	1514.08	4409.3	3028.17	2271.13	2583.17	3785.21	757.042	3031.05	3028.17	1381.13	2271.13	2583.17	0	2138.17	1826.13	4542.25	0	757.042	1069.09	1514.08	757.042	1514.08	312.045	2271.13	757.042	1069.09	0	1514.08	1514.08	1826.13	3028.17	1514.08	757.042	6371.27	757.042	5611.34	3028.17
 15.1	8626.54	33035.6	31282.3	6305.18	4379.16	5707.1	5274.48	2618.6	6734.2	23223.7	7464.06	11579.7	12610.4	20469.8	11282.4	7298.6	11546	9521.86	8231.2	13002.1	10684.3	12573.1	11447.9	4808.18	6903.26	4977.24	7896.68	6997.76	8754.72	4977.24	7166.82	4379.16	5707.1	9089.23	5109.02	7163.22	10289	5838.88	9785.42	13005.7	5109.02	8758.32	5109.02	9484.58	10086.3	9785.42	5838.88	8359.37	8528.43	8626.54	729.86	0	3084.9	2787.66	2189.58	6173.4	6004.34	4379.16	0	4808.18	4115.6	2057.8	5707.1	5538.04	729.86	4977.24	5838.88	4078.32	3517.52	3216.68	3649.3
 15.7	7162.04	55579.9	46730.8	5484.72	3670.59	4348.03	10103.1	5781.09	13070.2	31143	7289.06	17301	25896.1	16317.3	12340.6	16486.7	17867.6	18978.3	16841.7	17994.7	16740.7	19401.7	19935.8	7035.01	9832.75	7865.54	6611.62	12969.2	8171.7	11383	9578.71	8595.1	6061.2	9103.19	10705.6	5882.05	8741.71	9145.52	6061.2	11138.8	14070	12112.6	12816.1	14503.2	6611.62	12790	10002.1	16291.3	13053.9	11689.2	0	1407	7289.06	1534.02	1407	5305.58	2517.63	2814.01	2263.59	2110.5	2670.72	5755.03	5051.53	4924.51	9145.52	5755.03	6637.68	10002.1	12086.5	11383	7188.1
 16.3	8813.92	44266.7	37922.6	5806.88	4331.51	6101.95	5157.03	7454.56	7988.4	27492.6	10169.9	15681.7	21657.5	16795.6	11525.9	19922	13289.6	15854	18980.5	20069.5	21400.7	21569.7	19777.8	5301.19	11908.8	8135.93	6632.41	15298.8	13264.8	9636.07	7840.86	7988.4	9607.93	7454.56	8810.54	10458.2	10904.2	8813.92	11519.1	8782.4	12881.9	7988.4	13145.4	12319.9	5954.41	5835.03	11522.5	15443	9460.39	13409	2033.98	3389.97	5423.95	4067.96	3123.05	4479.04	3653.51	4067.96	8132.55	4067.96	2416.91	6657.18	5423.95	5423.95	6101.95	7457.93	7162.87	9755.46	8135.93	10847.9	7988.4
 16.8	7830.6	41736.1	53218.7	5870.53	4821.04	9800.34	7444.14	5731.61	6523.89	27638.9	10453.7	22214.1	25421.6	20600.5	16919.5	15126.1	15789.2	21025.7	18126	16423.2	23501.5	23442.2	22461.7	3365.73	7830.6	13028.4	13028.4	10444	9127.63	9642.07	6523.89	12394.4	10691.6	12918.5	17453.3	9503.16	12651.6	15670.9	10175.9	17888.2	16314.6	11750.7	10701.2	14611.7	10434.3	12661.3	11602.1	15541.6	17215.5	16175.6	1306.71	3910.46	5207.5	3920.14	2860.97	2207.61	3524	5226.85	3781.22	3920.14	5226.85	6651.86	3910.46	6504.53	7820.92	5217.17	7830.6	6137.42	5226.85	3920.14	9137.31
 17.5	13917.9	49715.7	44264.7	4645.53	5052.89	8418.86	8418.86	8428.2	11580.4	45283.9	10717.5	22550.5	25740.1	19387.5	18387.1	24014.4	19368.8	18098.6	20018	25061.5	21715.7	24459.1	26342.5	7584	7613.49	15798.4	13315.5	11396.1	12035.9	6546.2	13287.5	13704.2	15149.3	11173.1	13732.2	15779.8	10105.8	12026.6	9272.39	15770.4	12035.9	13694.8	13694.8	15818.6	14111.5	22113.7	14334.6	16653.5	17088.8	15595.5	630.444	5275.98	3209.71	5897.08	3384.64	4238.18	5043.55	4005.75	5043.55	6304.44	6304.44	6120.17	6313.78	7185.98	9475.33	8428.2	8428.2	10940.6	12424.6	9456.66	11580.4
 18.1	8911.66	49051.3	52661	7775.09	8340.83	2826.2	6300.7	8733.87	11167	38370	9124.36	34277.1	26554.6	18076	15427.6	20902.2	19467.9	24334.2	20333.9	21292.7	32151.8	23633.2	36545.1	11031.8	10736.5	7732.54	13602.7	12210.9	11520.1	12816.7	8561.17	18076	13031.9	12343.6	19199.9	14599	15207.3	12994.5	26674.7	14248.5	15778.1	17117.2	10518.7	12736.6	17249.9	19427.8	15467.6	15995.9	17252.5	21375.3	866.095	2475.72	6478.5	4042.79	4042.79	5477.17	5299.37	3434.49	9990.45	4866.33	4258.03	2610.96	8340.83	6909	10165.7	12383.6	8383.38	6475.95	10343.5	13815.4	15425.1
 18.8	16623.2	66061.1	49334	10497.8	4870.41	4735.74	5492.67	14445.8	11369.1	40291.4	8883.84	32354.1	34525.5	28061.5	22081.2	25157.9	20875.2	20840.5	24082.7	20287.5	31780.8	27394.1	23733.6	8838.71	13754.2	16035.6	12195.2	14680.5	14207.2	15064.2	17031	10328.5	17000.2	12444.3	15153.7	16627	13550.3	18659.3	16816.6	14545.8	15382.5	17788	13585	21777.3	15482.5	20152.9	16443.4	20322.2	21044.5	24874.3	926.227	3899.05	3107.49	1175.28	5876.39	4317.39	4870.41	6498.66	7424.88	4770.36	10024.5	7639.31	10781.4	9018.51	11956.7	9053.13	9357.1	7051.67	10193.8	16070.2	12026
 19.5	11353.1	66379.2	57501.2	5676.53	6124.36	10975.9	9049	28887.1	14829.6	45953.9	9119.64	27818.7	32240.1	29745.6	26903.6	23244.1	27785.3	26907.3	24790	29592.3	31452.3	29401.9	25738.6	9997.59	10598.7	11009.3	14762.7	13556.8	14314.9	16756.5	14228.5	17357.6	18412	17601	20610.2	20372.4	19834.4	15226.3	13851.3	20215.3	14091	12989.1	23430.8	13246.5	19146.9	19924.5	17754.3	23434.5	24155.5	26803.3	567.653	5299.34	6124.36	5676.53	7947.14	9049	8618.88	3596.39	8361.52	11510.1	7450.13	6244.18	10632.1	9496.83	9720.74	8104.16	13350.6	9082.44	14262	10975.9	8982.1
 20.2	11051.3	69868.6	61936.8	13005.5	9437.45	5660.8	9715.44	30311.6	14240.7	57079.4	12680.3	26852.4	44599.5	22249.5	20859.6	28188.3	24898.2	25384.9	33185	36228.2	39850.2	29555.3	30713.6	9282.85	16650.4	11537.9	12356.6	16225.4	17021.3	12534	14395.3	16063.2	19237.4	27400.8	17191	22704.9	10418.4	18418.8	25539.5	15483.7	21075.9	19037.1	21801.7	17260.4	23075.8	25794.6	23995	20998.2	21894.6	22504.6	2193.34	6912.06	4347.83	4780.43	5722.5	4935.02	5621.95	4409.54	7089.51	7305.81	9066.56	12147.9	6695.77	7244.1	10163.2	5815.39	12379.4	14341.3	13607.8	15530.8	14341.3
 20.9	16369.6	68903.2	60063.4	9683.7	7945.31	9154.02	8110.15	39636.6	12116.6	58222.1	13109.8	37572.6	43986.8	20607.1	25271.5	24146	29879.5	26598.5	36961.3	28948.3	31596.7	31365.7	29442.8	9699.21	11088.3	10907.9	9185.03	17182.5	16204.8	19990.1	17341.7	22890.7	19728.1	16431.7	17145.8	15079.2	23321.7	24052.9	22725.9	20736.8	21486.2	18267.2	26978.9	27673.4	21286.2	23635.9	27524.1	25523.7	21975.1	23137.2	1589.06	6885.93	6505.58	7580.46	9833.04	5842.07	8243.98	6654.92	11802.5	8125.66	8125.66	8923	8552.53	7446.63	9185.03	9565.38	17429	12147.6	12759	17114.8	16914.8
 21.7	15505.7	65911.8	71708.3	8019.58	5122.64	9220.75	7492.32	56852.6	11254.8	65180.5	14304.6	36643.7	35978.8	29336.9	26889.5	32165	28510.1	30346.4	34426.8	33234.5	40565.2	37315	34894.1	11934.9	19756.7	16536.4	16018	15335.3	16368.6	19870.7	23977.6	17195.3	20925.2	18174.9	25903.8	17042.5	18753.3	18264.9	23357.5	23120.9	20808.5	27195.2	24879.3	24352	17554.8	25229.9	27090	27782.4	24819.3	23998.8	1536.79	3241.4	4265.92	8004.59	5634.9	9885.83	5290.45	8355.21	6314.98	12255.5	5772.72	5458.26	9313.58	10215.3	12600	13456.7	12591.1	10712.5	13273.9	19777.8	15826.4
 22.5	14331.6	76583.8	70734.2	9594.03	7247.05	7439.22	3642.65	68366	11710.6	55492.5	16102.1	41909.8	47159.1	20475.2	31709.5	27629	30039.5	30344.6	38953.9	39147.4	49024	35581.3	35593.9	14827.6	12377.5	20595.3	18603	17486.9	20869.4	18367.2	18966.2	21224	25645.2	28390.5	22600.3	26730.3	17649.3	20039.9	24311.3	26162.3	23113.3	23802.7	24503.5	26791	21690.3	24259.1	23229	27881.9	23927	23549.8	991.896	5292.96	7084.58	4442.37	5951.38	9372.14	6284.86	10868.5	9068.37	14502.6	8876.19	9513.44	13036	12206.5	12681.3	13947.3	10817.7	10030.6	13998.1	15281.2	15029.6
 23.3	14664.6	69350.2	69734.1	9435.06	7388.22	9010.86	9491	64032.2	15070.5	55059.1	17013.2	39512.2	47298.7	33572.4	22603	28997.3	29805.4	33084.3	41883.2	37387.4	37055.6	39192.2	29827.5	12319.8	16879.2	19540.2	17027.6	13648.3	16183	17765.3	19298.2	18821.9	24051.4	26288.1	22715.1	17913.7	18762.1	28074.7	33062.2	24657.8	26924.5	23589.4	22257.1	24955.7	27426.8	23139.3	20612.3	24609.5	32105.8	26816.5	2400.72	5281.59	5835.9	7812.42	6722.02	7038.19	5225.65	5966.01	9196.91	7886.59	5653.7	8128.59	9621.11	9677.06	9919.05	10291.2	14556.5	13760.2	16585.1	19358	16443.2
 24.1	18489.4	73764	72815.1	9949.9	9325.04	8043.9	8571.73	87784.4	13029.1	60152.3	15861.2	30615.4	46076.8	31033.8	28729.6	29860.6	33123.4	31949	42954.5	39982.4	40003.7	35438.4	42900.6	13610.9	18693.2	21310.6	18705.2	16432.1	18285.7	18251.9	18586.4	19006.4	26564.4	16561.7	24357.2	23097.8	22214.9	26598.1	29246.6	17725.2	28030.2	21697.9	30291.4	23969.9	28482.4	27911.5	21008.2	25638.3	24045.6	29021.1	1852.05	6546.98	7117.88	6600.92	8528.65	6999.12	6137.91	6708.82	11748	8560.86	8797.22	10025.6	10014.7	17304.1	8851.17	13212.7	16442.9	19167	16378.1	21665.7	25811.1
 25.0	12233.3	75776.6	78381.3	11521	7752.38	7474.24	10730.3	84926.8	12869.9	62649.2	12485.1	43223.6	41974.2	28376.6	20883.1	29897	34202.6	31308.8	27736.2	35981.9	45056.8	42124.5	36622.3	16125.9	12763.2	19425.6	16280.1	17987.4	25577.3	24221.3	21395.6	16043.7	20513.7	19724.9	21477.8	27410.5	19723	26046.2	23367.6	20048.7	18293.8	26982	27564.7	29273.9	23131.3	28763.3	26423.8	31091.7	29426.2	23176.9	899.273	6125.34	8095.38	5504.2	7904.63	8992.73	5675.7	7645.75	7752.38	7752.38	11240.9	8803.9	10387.3	10728.3	9678.74	12744	16468.9	13321.4	19058.2	21010.9	18782
 25.9	13166.7	83850.3	74710.4	9733.63	7090.84	8937.55	12969.3	86655.7	14712.4	70731.8	15164.3	41254.7	41852.6	31109.8	29232.4	33377.7	30116.4	38184.9	33170.5	28452.1	36250.3	36588.6	35568.6	17245.7	14472.7	16195.1	23389.6	20757.6	21272.5	19898.4	21366.2	16283.8	19784.9	26531.5	20939.1	20653.9	26079.6	24435.2	28737.3	18072.5	28457.1	28826.1	29326.1	21542.8	24940.3	27254.6	28384.1	22973.3	27484.4	30907.5	0	5878.48	5711.79	3766.41	4807.12	7257.53	7189.51	7381.89	7184.55	7356.2	11721.3	13547.3	9806.61	13469.4	13068	13042.3	15258	15960.4	16298.7	25236.3	17021
 26.9	12156	75287.4	63118.2	13431.2	13188.4	11230	11822	82967.3	10869.6	64751.7	13882.7	37949.8	41804	26875.6	26757.5	27752.3	29250	34978.5	36331.6	34629.2	30623.4	39921.5	45576.7	12841.2	21398.5	18198.1	12839.2	20243.5	19664.7	23568.3	19226.4	19896.3	20423.7	17194.3	16689.2	21865.9	26352.4	22137.2	29721.8	19315.5	16920.8	24505.4	22769.5	23490.4	23479.2	22010.5	26372.6	29773.2	25680.4	20566.3	2550.44	6554.21	6207.04	2550.44	6376.09	7740.37	9954.79	9527.63	6799.08	9954.79	10043.9	8848.62	10971.9	11049.8	12414.1	15080.1	16767.1	14383.6	18120.2	20735.3	18235.8
 27.9	13707.9	83468.6	74626.3	14516.7	14098.9	13684.9	6317.73	74536	17662.8	62126	17944.3	39252.5	43448.2	29924.9	31203.9	32122.1	30132.6	37062.9	31652.1	30489.2	39429.4	47127.9	39034.6	11980.7	18876.7	17380	12466	21635.5	18027.1	15483.4	11807.5	16638.7	19269	22790.8	21304.4	15987.9	21007.5	22203.6	19573.5	25018.6	24032.7	25496.2	22655.8	21726	27321.4	20187.3	30406.4	27133	23618.7	30515.9	1640.55	5075.82	6238.73	4925.49	4929.32	6645.04	5899.93	6389.06	4184.21	7954.45	8849.89	9105.87	10411.4	9512.17	15743.2	11871.2	12608.6	11385.9	15412.1	16488.4	17270.5
 28.9	11608.5	67239.5	73636.8	12597.5	14750.3	11735.8	9470.62	90401.5	19375.8	57989.9	8279.28	34606.9	40551	31518.7	24896.5	26474.9	30371.1	29253.5	36849.7	32061.9	30975.5	37648.9	31255.2	14490.6	15654.4	14928.9	23060.8	18890	17714.9	17217.9	20073.8	17543.8	24171	20992.9	22482.6	25443.5	21784.6	20659.5	24241	21913.3	23526.6	25117.6	24648	24974	26211.5	19061.1	26401.3	19852.8	26979.4	30975.5	1998.01	7262.78	7328.99	7988.31	7332.72	5986.56	6607.2	6929.39	8857.45	12776.1	7728.59	8531.53	9656.66	12857.2	16124	9400.68	10932.9	13617.7	15794.3	18447.9	12752.3
 30.0	14395.6	65047.9	67884.4	9963.77	12525.9	11335	6669.75	80925.4	14600.2	61282.6	10533.5	40718.8	40494.4	23617	28721.7	24238.2	27409.5	25406.4	27215.5	34433.8	27105	35979.3	40483.9	10837.9	16815.4	15066.9	12992.6	18574.4	17253.3	19286.6	19469.9	17944.2	16804.8	17568.5	18065.3	19438.1	25945.9	17242.7	18401.8	20894.3	22976.1	24907.9	19174.5	22714.1	21277.4	25997.4	27409.5	20851.8	27359.6	25041.3	1422.73	5856.15	8103.15	6963.75	7584.97	6059.2	7259.17	6557.66	5987.96	8631.99	7198.59	11844.1	8947.13	8824.37	8234.96	10095.6	14935.1	18891.2	14477.5	17333.6	15616.9
 31.1	8517.76	63170	57142.2	10576.3	7772.59	12339.8	4885.17	78135.4	11165.6	53506.1	9966.78	28979.9	40538.4	24408.2	27388.1	23482.4	30472	31226	38116	35416.2	28275	39382.7	26693.1	14362.2	12913.2	17911.1	13402.9	13976.4	17875	18236.2	16479.7	19827.9	23521.3	17678.6	19931.8	16358.2	19863.9	23974.9	25254.7	16163.5	20180.2	21688.2	19058	20967.7	18559.4	20498.2	23505.4	21207.3	25467.1	30893.9	2381.8	5707.01	5149.45	6007.35	5081.61	6709.41	6838.02	5314.12	4643.83	7969.03	7917.09	6957.8	9100.05	12958.1	8759.1	8020.98	9219.83	15818.3	11269.5	17292.8	21509.4
 32.2	11859.9	60970.1	56725.6	10155.4	9437.2	7420.53	10909.5	72831.7	12162.1	51393.2	11903.3	31240.7	29982.6	24145.4	19004.8	25942.4	22636.6	27130.4	29651.1	33870.7	31538	30366.2	31327.6	13304.2	14073.9	17340.7	16737.3	13309.8	15150.2	16044.6	14061.4	15837.3	19786.8	14089.4	16957.1	19490.2	17006.1	16721.8	23421.7	21246.7	17616.3	18281	20489.5	21138.8	19298.4	20906.6	22450.3	22314.4	20341.2	28513.4	1104.23	4092.32	5004.75	3696.29	5784.37	7036.94	6449.12	8524.77	8537.2	6372.18	5521.17	8657.59	9465.15	10452.1	7980.4	8772.45	11970.3	9140.52	11952.3	11661.2	14429.5
 33.4	14704.6	53876.3	48013.1	9530.48	6814.37	7062.19	3603	67271.7	9416.12	41129.5	9387.09	23605.2	33031.6	21112.4	19690.1	19868.3	24190.3	23976.9	27971.1	29512.7	23937.1	34538	32813.2	8603.83	7423.97	13703.3	15809.4	13267	10382.6	13128.5	10878.2	16092.1	13271.9	15521.8	21226.4	10348.1	18153.4	20725.7	20730.7	18976	19239.2	18654.5	17088.3	19655.3	15482.4	17474.6	20616.7	18733.6	24864.2	18803.2	0	2641.53	5496.08	4063.84	3637.81	4812.29	3211.37	4316.64	7453.83	4495.25	6561.57	5847.94	6958.17	7240.81	11096.2	7597.63	8702.49	9629.55	12023.3	10878.2	9668.91
 34.6	9042.31	57180.1	50358.8	7351.6	4132.38	8424.63	4989.87	59747.4	12370.5	40972.5	10355.2	27473.2	32356.5	21221.3	19395	25974	21945.7	21492.8	24523.1	25114.1	21330.4	27047	27872.8	9793.26	14918.9	12181.6	12772.7	13550.1	11108.6	14596.5	9766.53	15078.6	15589.7	11566.4	13547.6	17064.9	11265.9	15909.4	12048.3	13092.3	11915.2	13491.9	19637.3	19077.7	19799.6	19315.1	21487.9	16205	21972.3	18510.9	617.681	1744.05	3139.28	7029.39	5365.28	4345.46	5421.07	6574.04	6518.25	5365.28	9122.25	7378.2	5607.55	7135.93	7780.34	9417.72	8344.69	9255.39	8531.17	13334.6	7700.41
 35.9	8640.51	46881.5	39766.4	7689.38	6590.11	7148.91	4622.94	49424.3	11166.5	42925.9	8087.33	21816.5	23052.6	19433	14742.3	21120.8	19818.2	21702.2	20893.6	18421.2	25790.3	26337.8	27981.8	7807.93	9162.64	11172.1	14160.9	12082.3	11213	8814.09	11766.2	12586.1	16727.8	13816.6	12924.8	17547.7	14462.9	14975.2	14630.9	13602.1	13520.3	20018.7	19145.1	17419.3	19442.9	19383.6	17451.8	14760.7	18896.8	16691.2	416.293	4682.21	2709.42	1848.62	3405.12	3880.69	4219.36	5455.52	3464.39	4421.15	9739.78	6869.51	5098.51	7428.32	7611.76	8040.77	9597.27	11231.4	9519.66	14000.1	8485.28
 37.2	5976.44	41470.4	34854	4814.33	4213.51	5040.1	5040.1	53166.4	8248.92	36504.8	6745.02	21975.1	27487.4	14563.1	15288.1	14672.8	19828.9	23089.5	14846.9	17834	23273.9	19538.9	21859	8296.59	10852.8	9417.3	10090.5	12352.7	8590.7	15172	15114	14710.2	13289	11194.6	12390	10562.7	14519.5	15192.7	12605.4	13572.8	16220.3	11526.1	13394.7	17177.3	11190.6	16172.7	16187.1	15157.6	16829.3	15540.8	1609.58	3656.29	2651.6	2603.93	2709.61	4640.3	2935.38	4992.43	5586.98	3041.06	6718.02	7302.24	4555.29	6376.24	6423.91	6923.12	6697.35	7985.81	8354.6	9964.18	8012.81
 38.5	8015.5	36151.6	37308.9	4834.28	3960.13	4558.35	3225.21	51171.7	7695.57	32891.8	5068.57	21046	22713.2	12573.8	13647.7	14187.6	16958.6	17871.8	16956.2	18792.3	22298.2	17090.6	21002	8293.79	9119.06	8061.85	9119.06	8430.49	11521.4	10000.3	6865.42	9538.93	13411.1	10732.8	9494.94	14050.8	9167.77	12070.7	14050.9	8520.84	13130.4	14600.3	12808.1	8476.85	11885.3	16633.9	14517	18284.6	16035.7	13086.4	1013.21	1335.5	4511.99	2302.35	1889.72	2856.57	2902.93	2993.28	5759.5	4834.28	3039.63	5759.5	4006.49	6084.15	5070.94	6406.43	3869.78	5896.2	8293.79	8428.13	7969.14
 40.0	4506.42	37482.3	27915.6	4687.35	5172.99	5367.41	4948.97	41073.6	5448.1	33963.1	4142.09	17256.9	21169.5	15144	9762.58	11616.9	11886.5	11034	14903.5	17081.5	14636.4	20888.9	15041.3	6711.03	10146.5	8562.31	8883.55	8367.89	9274.46	8186.96	7663.72	7118.46	9099.04	6667.93	9638.8	9406.78	11986.7	11932.6	13700.2	8154.87	10858.6	11306.7	10810	10262.3	9455.39	10264.7	12790.6	11495.6	10799	12868.8	1894.38	4055.89	3108.7	2112.9	2253.21	3734.65	1937.48	3108.7	4190.69	5585.93	4055.89	5089.28	3060.09	6395.3	3237.99	6978.15	4414.72	5726.24	7925.34	6357.7	9728.02
 41.4	4857.8	30775.8	30299.9	2813.92	3263.28	4303.59	5740.2	34070	4970.17	31971.3	7918.53	15684.9	15424.8	9502.85	8948.64	12303.5	9935.88	13732.6	11381.3	13317.3	13178.4	14016.5	18745.6	4658.31	7070.18	6381.53	5719.41	8662.03	6060.86	7939.32	5533.19	7377.58	7009.59	10070.3	8840.72	9476.31	8827.46	8125.54	9455.52	9381.67	8104.75	10472.4	10178.2	8722.62	9247.22	11840.9	8706.28	11438.8	11628.1	13320.3	922.198	1523.73	2813.92	1263.65	1476.41	1878.45	2091.21	3736.11	2459.19	3722.85	3675.53	4476.55	4090.84	3736.11	3675.53	5199.26	5887.91	6581.02	4398.24	4489.81	5861.38
 42.9	4801.78	21835.7	23542.2	3456.19	1949.06	10469.5	7150.04	36402	9480.36	23283.5	6890.71	12355.4	17178.2	12095.4	12558.4	10788.2	10967.1	14142.9	11773	11288.9	13882.9	14464.7	15590	5646.65	8801.41	6368.32	6066.9	8678.22	7994.9	7090	6852.35	8499.99	6831.3	9302.13	7493.57	6708.11	6809.63	11348.3	6890.71	5884.29	8295.71	7192.14	6992.23	7794.99	9900.61	9722.38	8576.08	7773.32	10325.2	7090.62	1125.24	1867.97	1808.56	1184.65	2390.36	3073.68	3375.11	2109.99	2330.95	3073.68	4942.28	2288.22	2933.8	2712.84	3596.07	4941.65	4661.9	3935.86	4882.86	5765.47	3434.52
